This file was created by CODIAN@move
Mittwoch, 31. Mai 2023		21:53

Profile mode:	1-D-Scan    Z
Timebase Counter [ms]:	1000
No. of Steps:	444
Pos. X	Pos.Y	Pos. Z	Probe	Reference	norm. Probe	norm. Factor
53.00	52.50	91.30	172400	28130000	172400	1.00000
53.00	52.50	91.20	172600	28170000	172355	0.99858
53.00	52.50	91.10	172600	28140000	172539	0.99964
53.00	52.50	91.00	172700	28150000	172577	0.99929
53.00	52.50	90.90	172600	28110000	172723	1.00071
53.00	52.50	90.80	173800	28230000	173184	0.99646
53.00	52.50	90.70	173500	28180000	173192	0.99823
53.00	52.50	90.60	173300	28110000	173423	1.00071
53.00	52.50	90.50	173800	28200000	173369	0.99752
53.00	52.50	90.40	174000	28220000	173445	0.99681
53.00	52.50	90.30	173800	28200000	173369	0.99752
53.00	52.50	90.20	173300	28130000	173300	1.00000
53.00	52.50	90.10	173700	28180000	173392	0.99823
53.00	52.50	90.00	173600	28240000	172924	0.99610
53.00	52.50	89.89	173100	28140000	173038	0.99964
53.00	52.50	89.80	172700	28110000	172823	1.00071
53.00	52.50	89.70	173100	28200000	172670	0.99752
53.00	52.50	89.60	172700	28160000	172516	0.99893
53.00	52.50	89.50	172500	28150000	172377	0.99929
53.00	52.50	89.40	172600	28210000	172111	0.99716
53.00	52.50	89.30	172100	28140000	172039	0.99964
53.00	52.50	89.20	172300	28180000	171994	0.99823
53.00	52.50	89.10	171600	28110000	171722	1.00071
53.00	52.50	89.00	171800	28110000	171922	1.00071
53.00	52.50	88.90	172200	28160000	172017	0.99893
53.00	52.50	88.80	172400	28220000	171850	0.99681
53.00	52.50	88.70	172500	28200000	172072	0.99752
53.00	52.50	88.60	172400	28200000	171972	0.99752
53.00	52.50	88.50	173000	28240000	172326	0.99610
53.00	52.50	88.40	172800	28190000	172432	0.99787
53.00	52.50	88.30	173000	28210000	172509	0.99716
53.00	52.50	88.20	173200	28220000	172648	0.99681
53.00	52.50	88.10	173100	28160000	172916	0.99893
53.00	52.50	88.00	172800	28070000	173169	1.00214
53.00	52.50	87.90	173700	28200000	173269	0.99752
53.00	52.50	87.80	174300	28280000	173375	0.99470
53.00	52.50	87.70	174300	28250000	173560	0.99575
53.00	52.50	87.60	173800	28150000	173677	0.99929
53.00	52.50	87.50	174600	28250000	173858	0.99575
53.00	52.50	87.40	174900	28250000	174157	0.99575
53.00	52.50	87.30	174600	28200000	174167	0.99752
53.00	52.50	87.20	174700	28220000	174143	0.99681
53.00	52.50	87.10	174600	28150000	174476	0.99929
53.00	52.50	87.00	175100	28210000	174603	0.99716
53.00	52.50	86.90	175400	28240000	174717	0.99610
53.00	52.50	86.80	174800	28100000	174987	1.00107
53.00	52.50	86.70	175800	28250000	175053	0.99575
53.00	52.50	86.60	175900	28200000	175463	0.99752
53.00	52.50	86.50	175800	28180000	175488	0.99823
53.00	52.50	86.40	175900	28170000	175650	0.99858
53.00	52.50	86.30	176200	28180000	175887	0.99823
53.00	52.50	86.20	176200	28170000	175950	0.99858
53.00	52.50	86.10	176400	28180000	176087	0.99823
53.00	52.50	86.00	175900	28060000	176339	1.00249
53.00	52.50	85.90	176400	28100000	176588	1.00107
53.00	52.50	85.80	177600	28280000	176658	0.99470
53.00	52.50	85.70	177600	28250000	176846	0.99575
53.00	52.50	85.60	177500	28190000	177122	0.99787
53.00	52.50	85.50	177600	28190000	177222	0.99787
53.00	52.50	85.40	177800	28170000	177548	0.99858
53.00	52.50	85.30	177900	28210000	177395	0.99716
53.00	52.50	85.20	177800	28100000	177990	1.00107
53.00	52.50	85.10	178200	28190000	177821	0.99787
53.00	52.50	85.00	178500	28190000	178120	0.99787
53.00	52.50	84.90	178700	28170000	178446	0.99858
53.00	52.50	84.80	178600	28150000	178473	0.99929
53.00	52.50	84.70	178700	28120000	178764	1.00036
53.00	52.50	84.60	179100	28170000	178846	0.99858
53.00	52.50	84.50	179600	28190000	179218	0.99787
53.00	52.50	84.40	179800	28220000	179227	0.99681
53.00	52.50	84.30	179900	28220000	179326	0.99681
53.00	52.50	84.20	179700	28140000	179636	0.99964
53.00	52.50	84.10	180300	28210000	179789	0.99716
53.00	52.50	84.00	179900	28110000	180028	1.00071
53.00	52.50	83.90	180600	28200000	180152	0.99752
53.00	52.50	83.80	180600	28150000	180472	0.99929
53.00	52.50	83.70	180900	28190000	180515	0.99787
53.00	52.50	83.60	180400	28080000	180721	1.00178
53.00	52.50	83.50	181500	28200000	181049	0.99752
53.00	52.50	83.40	181600	28210000	181085	0.99716
53.00	52.50	83.30	181900	28200000	181448	0.99752
53.00	52.50	83.20	182100	28220000	181519	0.99681
53.00	52.50	83.10	181300	28090000	181558	1.00142
53.00	52.50	83.00	182500	28240000	181789	0.99610
53.00	52.50	82.90	183100	28290000	182064	0.99434
53.00	52.50	82.80	182400	28160000	182206	0.99893
53.00	52.50	82.70	182600	28140000	182535	0.99964
53.00	52.50	82.60	183200	28210000	182680	0.99716
53.00	52.50	82.50	182800	28130000	182800	1.00000
53.00	52.50	82.40	183500	28200000	183045	0.99752
53.00	52.50	82.30	183400	28160000	183205	0.99893
53.00	52.50	82.20	184200	28240000	183483	0.99610
53.00	52.50	82.10	184500	28230000	183846	0.99646
53.00	52.50	82.00	183900	28130000	183900	1.00000
53.00	52.50	81.90	184600	28220000	184011	0.99681
53.00	52.50	81.80	184700	28210000	184176	0.99716
53.00	52.50	81.70	184700	28160000	184503	0.99893
53.00	52.50	81.60	185400	28260000	184547	0.99540
53.00	52.50	81.50	185400	28210000	184874	0.99716
53.00	52.50	81.40	185300	28180000	184971	0.99823
53.00	52.50	81.30	185400	28150000	185268	0.99929
53.00	52.50	81.20	186000	28210000	185473	0.99716
53.00	52.50	81.10	185800	28150000	185668	0.99929
53.00	52.50	81.00	186100	28140000	186034	0.99964
53.00	52.50	80.90	186500	28170000	186235	0.99858
53.00	52.50	80.80	186200	28090000	186465	1.00142
53.00	52.50	80.70	186300	28110000	186433	1.00071
53.00	52.50	80.60	187700	28270000	186770	0.99505
53.00	52.50	80.50	187200	28160000	187001	0.99893
53.00	52.50	80.40	187500	28180000	187167	0.99823
53.00	52.50	80.30	188300	28240000	187567	0.99610
53.00	52.50	80.20	188200	28190000	187799	0.99787
53.00	52.50	80.10	188600	28240000	187865	0.99610
53.00	52.50	80.00	188900	28230000	188231	0.99646
53.00	52.50	79.90	189000	28220000	188397	0.99681
53.00	52.50	79.80	188900	28150000	188766	0.99929
53.00	52.50	79.70	188800	28130000	188800	1.00000
53.00	52.50	79.60	189200	28150000	189066	0.99929
53.00	52.50	79.50	189900	28220000	189294	0.99681
53.00	52.50	79.40	189900	28160000	189698	0.99893
53.00	52.50	79.30	189800	28120000	189867	1.00036
53.00	52.50	79.20	190300	28160000	190097	0.99893
53.00	52.50	79.10	190000	28080000	190338	1.00178
53.00	52.50	79.00	190900	28200000	190426	0.99752
53.00	52.50	78.90	191000	28180000	190661	0.99823
53.00	52.50	78.80	191200	28140000	191132	0.99964
53.00	52.50	78.70	192100	28230000	191420	0.99646
53.00	52.50	78.60	191700	28130000	191700	1.00000
53.00	52.50	78.50	192000	28190000	191591	0.99787
53.00	52.50	78.40	192600	28210000	192054	0.99716
53.00	52.50	78.30	192200	28130000	192200	1.00000
53.00	52.50	78.20	192900	28210000	192353	0.99716
53.00	52.50	78.10	193000	28170000	192726	0.99858
53.00	52.50	78.00	193200	28170000	192926	0.99858
53.00	52.50	77.90	192500	28060000	192980	1.00249
53.00	52.50	77.80	193300	28130000	193300	1.00000
53.00	52.50	77.70	194200	28170000	193924	0.99858
53.00	52.50	77.60	194100	28170000	193824	0.99858
53.00	52.50	77.50	194400	28170000	194124	0.99858
53.00	52.50	77.40	194800	28180000	194454	0.99823
53.00	52.50	77.30	194800	28180000	194454	0.99823
53.00	52.50	77.20	195300	28170000	195023	0.99858
53.00	52.50	77.10	195800	28200000	195314	0.99752
53.00	52.50	77.00	196000	28200000	195513	0.99752
53.00	52.50	76.90	195900	28170000	195622	0.99858
53.00	52.50	76.80	196300	28180000	195952	0.99823
53.00	52.50	76.70	196200	28130000	196200	1.00000
53.00	52.50	76.60	196900	28190000	196481	0.99787
53.00	52.50	76.50	197700	28250000	196860	0.99575
53.00	52.50	76.40	197900	28260000	196990	0.99540
53.00	52.50	76.30	198100	28240000	197328	0.99610
53.00	52.50	76.20	198400	28240000	197627	0.99610
53.00	52.50	76.10	197800	28140000	197730	0.99964
53.00	52.50	76.00	198400	28170000	198118	0.99858
53.00	52.50	75.90	198600	28140000	198529	0.99964
53.00	52.50	75.80	199300	28200000	198805	0.99752
53.00	52.50	75.70	199100	28140000	199029	0.99964
53.00	52.50	75.60	199900	28220000	199262	0.99681
53.00	52.50	75.50	200100	28200000	199603	0.99752
53.00	52.50	75.40	200500	28220000	199861	0.99681
53.00	52.50	75.30	200500	28200000	200002	0.99752
53.00	52.50	75.20	200900	28200000	200401	0.99752
53.00	52.50	75.10	200700	28140000	200629	0.99964
53.00	52.50	75.00	200600	28080000	200957	1.00178
53.00	52.50	74.90	201200	28130000	201200	1.00000
53.00	52.50	74.80	201800	28170000	201513	0.99858
53.00	52.50	74.70	201900	28160000	201685	0.99893
53.00	52.50	74.60	202500	28180000	202141	0.99823
53.00	52.50	74.50	202800	28200000	202297	0.99752
53.00	52.50	74.40	203000	28190000	202568	0.99787
53.00	52.50	74.30	204100	28280000	203017	0.99470
53.00	52.50	74.20	203900	28210000	203322	0.99716
53.00	52.50	74.10	204200	28200000	203693	0.99752
53.00	52.50	74.00	204200	28160000	203982	0.99893
53.00	52.50	73.90	204900	28230000	204174	0.99646
53.00	52.50	73.80	205400	28230000	204672	0.99646
53.00	52.50	73.70	205300	28190000	204863	0.99787
53.00	52.50	73.60	205500	28190000	205063	0.99787
53.00	52.50	73.50	206200	28250000	205324	0.99575
53.00	52.50	73.40	206300	28170000	206007	0.99858
53.00	52.50	73.30	206300	28170000	206007	0.99858
53.00	52.50	73.20	206600	28150000	206453	0.99929
53.00	52.50	73.10	206600	28130000	206600	1.00000
53.00	52.50	73.00	207100	28150000	206953	0.99929
53.00	52.50	72.90	208100	28230000	207363	0.99646
53.00	52.50	72.80	207900	28170000	207605	0.99858
53.00	52.50	72.70	208600	28190000	208156	0.99787
53.00	52.50	72.60	208400	28160000	208178	0.99893
53.00	52.50	72.50	209000	28170000	208703	0.99858
53.00	52.50	72.40	209600	28200000	209080	0.99752
53.00	52.50	72.30	209800	28200000	209279	0.99752
53.00	52.50	72.20	209400	28080000	209773	1.00178
53.00	52.50	72.10	210500	28190000	210052	0.99787
53.00	52.50	72.00	210800	28170000	210501	0.99858
53.00	52.50	71.90	211100	28170000	210800	0.99858
53.00	52.50	71.80	211500	28190000	211050	0.99787
53.00	52.50	71.70	211800	28210000	211199	0.99716
53.00	52.50	71.60	211700	28100000	211926	1.00107
53.00	52.50	71.50	213700	28330000	212191	0.99294
53.00	52.50	71.40	213200	28220000	212520	0.99681
53.00	52.50	71.30	213500	28200000	212970	0.99752
53.00	52.50	71.20	213600	28160000	213372	0.99893
53.00	52.50	71.10	214300	28200000	213768	0.99752
53.00	52.50	71.00	214500	28180000	214119	0.99823
53.00	52.50	70.90	214800	28170000	214495	0.99858
53.00	52.50	70.80	214900	28170000	214595	0.99858
53.00	52.50	70.70	215600	28190000	215141	0.99787
53.00	52.50	70.60	216000	28180000	215617	0.99823
53.00	52.50	70.50	216600	28210000	215986	0.99716
53.00	52.50	70.40	217800	28310000	216415	0.99364
53.00	52.50	70.30	217000	28180000	216615	0.99823
53.00	52.50	70.20	217700	28230000	216929	0.99646
53.00	52.50	70.10	218100	28210000	217481	0.99716
53.00	52.50	70.00	218600	28240000	217749	0.99610
53.00	52.50	69.90	218500	28150000	218345	0.99929
53.00	52.50	69.80	219000	28190000	218534	0.99787
53.00	52.50	69.70	219300	28160000	219066	0.99893
53.00	52.50	69.60	220000	28170000	219688	0.99858
53.00	52.50	69.50	219800	28100000	220035	1.00107
53.00	52.50	69.40	220700	28170000	220387	0.99858
53.00	52.50	69.30	221000	28160000	220765	0.99893
53.00	52.50	69.20	221500	28170000	221185	0.99858
53.00	52.50	69.10	221900	28170000	221585	0.99858
53.00	52.50	69.00	222600	28190000	222126	0.99787
53.00	52.50	68.90	222700	28130000	222700	1.00000
53.00	52.50	68.80	223500	28170000	223183	0.99858
53.00	52.50	68.70	224600	28270000	223488	0.99505
53.00	52.50	68.60	224300	28140000	224220	0.99964
53.00	52.50	68.50	225300	28220000	224581	0.99681
53.00	52.50	68.40	225400	28190000	224920	0.99787
53.00	52.50	68.30	226200	28220000	225479	0.99681
53.00	52.50	68.20	227000	28240000	226116	0.99610
53.00	52.50	68.10	226600	28170000	226278	0.99858
53.00	52.50	68.00	226800	28140000	226719	0.99964
53.00	52.50	67.90	228100	28210000	227453	0.99716
53.00	52.50	67.80	228600	28220000	227871	0.99681
53.00	52.50	67.70	228800	28180000	228394	0.99823
53.00	52.50	67.60	229000	28180000	228594	0.99823
53.00	52.50	67.50	229400	28150000	229237	0.99929
53.00	52.50	67.40	229700	28110000	229863	1.00071
53.00	52.50	67.30	230600	28190000	230109	0.99787
53.00	52.50	67.20	231400	28210000	230744	0.99716
53.00	52.50	67.10	231100	28120000	231182	1.00036
53.00	52.50	67.00	232100	28170000	231770	0.99858
53.00	52.50	66.90	233000	28230000	232175	0.99646
53.00	52.50	66.80	233900	28230000	233071	0.99646
53.00	52.50	66.70	234000	28190000	233502	0.99787
53.00	52.50	66.60	234300	28160000	234050	0.99893
53.00	52.50	66.50	234200	28110000	234367	1.00071
53.00	52.50	66.40	235000	28130000	235000	1.00000
53.00	52.50	66.30	235800	28150000	235632	0.99929
53.00	52.50	66.20	236600	28160000	236348	0.99893
53.00	52.50	66.10	237100	28160000	236847	0.99893
53.00	52.50	66.00	237700	28170000	237362	0.99858
53.00	52.50	65.90	238600	28190000	238092	0.99787
53.00	52.50	65.80	238900	28170000	238561	0.99858
53.00	52.50	65.70	239300	28150000	239130	0.99929
53.00	52.50	65.60	239900	28160000	239644	0.99893
53.00	52.50	65.50	240300	28120000	240385	1.00036
53.00	52.50	65.40	241500	28200000	240901	0.99752
53.00	52.50	65.30	241800	28140000	241714	0.99964
53.00	52.50	65.20	242500	28180000	242070	0.99823
53.00	52.50	65.10	243200	28150000	243027	0.99929
53.00	52.50	65.00	243700	28150000	243527	0.99929
53.00	52.50	64.90	244300	28160000	244040	0.99893
53.00	52.50	64.80	245000	28160000	244739	0.99893
53.00	52.50	64.70	246200	28240000	245241	0.99610
53.00	52.50	64.60	245900	28110000	246075	1.00071
53.00	52.50	64.50	246700	28100000	246963	1.00107
53.00	52.50	64.40	247700	28160000	247436	0.99893
53.00	52.50	64.30	248100	28110000	248277	1.00071
53.00	52.50	64.20	249100	28160000	248835	0.99893
53.00	52.50	64.10	250100	28190000	249568	0.99787
53.00	52.50	64.00	250700	28180000	250255	0.99823
53.00	52.50	63.90	251100	28140000	251011	0.99964
53.00	52.50	63.80	251900	28150000	251721	0.99929
53.00	52.50	63.70	252300	28110000	252480	1.00071
53.00	52.50	63.60	253500	28140000	253410	0.99964
53.00	52.50	63.50	254800	28220000	253987	0.99681
53.00	52.50	63.40	255100	28160000	254828	0.99893
53.00	52.50	63.30	255700	28130000	255700	1.00000
53.00	52.50	63.20	256900	28210000	256171	0.99716
53.00	52.50	63.10	257700	28180000	257243	0.99823
53.00	52.50	63.00	258500	28200000	257858	0.99752
53.00	52.50	62.90	260100	28250000	258995	0.99575
53.00	52.50	62.80	260400	28230000	259478	0.99646
53.00	52.50	62.70	261200	28210000	260459	0.99716
53.00	52.50	62.60	261500	28150000	261314	0.99929
53.00	52.50	62.50	262700	28200000	262048	0.99752
53.00	52.50	62.40	264200	28260000	262985	0.99540
53.00	52.50	62.30	264200	28160000	263919	0.99893
53.00	52.50	62.20	265200	28180000	264729	0.99823
53.00	52.50	62.10	265900	28190000	265334	0.99787
53.00	52.50	62.00	267200	28180000	266726	0.99823
53.00	52.50	61.90	267900	28170000	267520	0.99858
53.00	52.50	61.80	268800	28180000	268323	0.99823
53.00	52.50	61.70	270100	28190000	269525	0.99787
53.00	52.50	61.60	271000	28200000	270327	0.99752
53.00	52.50	61.50	271500	28130000	271500	1.00000
53.00	52.50	61.40	273000	28170000	272612	0.99858
53.00	52.50	61.30	274600	28250000	273434	0.99575
53.00	52.50	61.20	275000	28170000	274610	0.99858
53.00	52.50	61.10	276300	28190000	275712	0.99787
53.00	52.50	61.00	276800	28150000	276603	0.99929
53.00	52.50	60.90	278200	28180000	277706	0.99823
53.00	52.50	60.80	279200	28170000	278804	0.99858
53.00	52.50	60.70	279500	28110000	279699	1.00071
53.00	52.50	60.60	280600	28100000	280900	1.00107
53.00	52.50	60.50	282400	28170000	281999	0.99858
53.00	52.50	60.40	284000	28200000	283295	0.99752
53.00	52.50	60.30	284500	28150000	284298	0.99929
53.00	52.50	60.20	285800	28160000	285496	0.99893
53.00	52.50	60.10	286900	28180000	286391	0.99823
53.00	52.50	60.00	288400	28170000	287990	0.99858
53.00	52.50	59.90	290600	28260000	289263	0.99540
53.00	52.50	59.80	291100	28190000	290480	0.99787
53.00	52.50	59.70	292900	28230000	291862	0.99646
53.00	52.50	59.60	293300	28160000	292988	0.99893
53.00	52.50	59.50	294200	28120000	294305	1.00036
53.00	52.50	59.40	296100	28170000	295680	0.99858
53.00	52.50	59.30	297600	28190000	296967	0.99787
53.00	52.50	59.20	299200	28210000	298352	0.99716
53.00	52.50	59.10	300200	28190000	299561	0.99787
53.00	52.50	59.00	301400	28150000	301186	0.99929
53.00	52.50	58.90	303000	28170000	302570	0.99858
53.00	52.50	58.80	304600	28160000	304275	0.99893
53.00	52.50	58.70	305700	28150000	305483	0.99929
53.00	52.50	58.60	307700	28190000	307045	0.99787
53.00	52.50	58.50	309200	28170000	308761	0.99858
53.00	52.50	58.40	310600	28140000	310490	0.99964
53.00	52.50	58.30	312300	28150000	312078	0.99929
53.00	52.50	58.20	313600	28130000	313600	1.00000
53.00	52.50	58.10	315400	28140000	315288	0.99964
53.00	52.50	58.00	317300	28140000	317187	0.99964
53.00	52.50	57.90	319200	28170000	318747	0.99858
53.00	52.50	57.80	321500	28210000	320588	0.99716
53.00	52.50	57.70	321000	28000000	322490	1.00464
53.00	52.50	57.60	324700	28160000	324354	0.99893
53.00	52.50	57.50	326800	28190000	326104	0.99787
53.00	52.50	57.40	329000	28190000	328300	0.99787
53.00	52.50	57.30	331000	28170000	330530	0.99858
53.00	52.50	57.20	333400	28220000	332337	0.99681
53.00	52.50	57.10	335200	28190000	334487	0.99787
53.00	52.50	57.00	338600	28290000	336685	0.99434
53.00	52.50	56.90	340100	28220000	339015	0.99681
53.00	52.50	56.80	342100	28230000	340888	0.99646
53.00	52.50	56.70	344100	28200000	343246	0.99752
53.00	52.50	56.60	346800	28200000	345939	0.99752
53.00	52.50	56.50	349000	28190000	348257	0.99787
53.00	52.50	56.40	351900	28220000	350778	0.99681
53.00	52.50	56.30	354000	28180000	353372	0.99823
53.00	52.50	56.20	356200	28160000	355821	0.99893
53.00	52.50	56.10	358500	28110000	358755	1.00071
53.00	52.50	56.00	362400	28200000	361500	0.99752
53.00	52.50	55.90	365000	28190000	364223	0.99787
53.00	52.50	55.80	367300	28110000	367561	1.00071
53.00	52.50	55.70	371200	28200000	370279	0.99752
53.00	52.50	55.60	373700	28140000	373567	0.99964
53.00	52.50	55.50	377900	28230000	376561	0.99646
53.00	52.50	55.40	381300	28210000	380219	0.99716
53.00	52.50	55.30	384100	28190000	383282	0.99787
53.00	52.50	55.20	386200	28080000	386888	1.00178
53.00	52.50	55.10	390900	28140000	390761	0.99964
53.00	52.50	55.00	394800	28170000	394239	0.99858
53.00	52.50	54.90	398500	28150000	398217	0.99929
53.00	52.50	54.80	402600	28130000	402600	1.00000
53.00	52.50	54.70	406300	28110000	406589	1.00071
53.00	52.50	54.60	411800	28180000	411069	0.99823
53.00	52.50	54.50	415900	28180000	415162	0.99823
53.00	52.50	54.40	420200	28140000	420051	0.99964
53.00	52.50	54.30	425200	28150000	424898	0.99929
53.00	52.50	54.20	431700	28220000	430323	0.99681
53.00	52.50	54.10	436200	28200000	435117	0.99752
53.00	52.50	54.00	442900	28260000	440863	0.99540
53.00	52.50	53.90	447500	28170000	446865	0.99858
53.00	52.50	53.80	453200	28150000	452878	0.99929
53.00	52.50	53.70	460100	28190000	459121	0.99787
53.00	52.50	53.60	466600	28170000	465937	0.99858
53.00	52.50	53.50	474000	28200000	472823	0.99752
53.00	52.50	53.40	481000	28140000	480829	0.99964
53.00	52.50	53.30	490000	28210000	488610	0.99716
53.00	52.50	53.20	499300	28260000	497003	0.99540
53.00	52.50	53.10	507200	28190000	506120	0.99787
53.00	52.50	53.00	516600	28170000	515866	0.99858
53.00	52.50	52.90	527700	28200000	526390	0.99752
53.00	52.50	52.80	538200	28150000	537818	0.99929
53.00	52.50	52.70	551300	28200000	549932	0.99752
53.00	52.50	52.60	564900	28220000	563098	0.99681
53.00	52.50	52.50	578400	28180000	577374	0.99823
53.00	52.50	52.40	594100	28160000	593467	0.99893
53.00	52.50	52.30	610400	28150000	609966	0.99929
53.00	52.50	52.20	629300	28210000	627515	0.99716
53.00	52.50	52.10	646200	28130000	646200	1.00000
53.00	52.50	52.00	667600	28210000	665707	0.99716
53.00	52.50	51.90	685900	28150000	685413	0.99929
53.00	52.50	51.80	705200	28140000	704949	0.99964
53.00	52.50	51.70	723400	28130000	723400	1.00000
53.00	52.50	51.60	740800	28180000	739486	0.99823
53.00	52.50	51.50	756100	28190000	754491	0.99787
53.00	52.50	51.40	765400	28120000	765672	1.00036
53.00	52.50	51.30	771800	28160000	770978	0.99893
53.00	52.50	51.20	773800	28170000	772701	0.99858
53.00	52.50	51.10	771700	28270000	767878	0.99505
53.00	52.50	51.00	759100	28210000	756947	0.99716
53.00	52.50	50.90	742100	28220000	739733	0.99681
53.00	52.50	50.80	717500	28210000	715465	0.99716
53.00	52.50	50.70	688200	28230000	685762	0.99646
53.00	52.50	50.60	650400	28170000	649476	0.99858
53.00	52.50	50.50	609400	28170000	608535	0.99858
53.00	52.50	50.40	564000	28140000	563800	0.99964
53.00	52.50	50.30	518200	28250000	515999	0.99575
53.00	52.50	50.20	466100	28120000	466266	1.00036
53.00	52.50	50.10	416800	28200000	415765	0.99752
53.00	52.50	50.00	366000	28120000	366130	1.00036
53.00	52.50	49.90	317800	28220000	316786	0.99681
53.00	52.50	49.80	271300	28140000	271204	0.99964
53.00	52.50	49.70	229100	28180000	228694	0.99823
53.00	52.50	49.60	190200	28230000	189526	0.99646
53.00	52.50	49.50	154600	28210000	154162	0.99716
53.00	52.50	49.40	123400	28210000	123050	0.99716
53.00	52.50	49.30	96690	28190000	96484	0.99787
53.00	52.50	49.20	74320	28130000	74320	1.00000
53.00	52.50	49.10	55960	28210000	55801	0.99716
53.00	52.50	49.00	41360	28190000	41272	0.99787
53.00	52.50	48.90	29550	28110000	29571	1.00071
53.00	52.50	48.80	20790	28090000	20820	1.00142
53.00	52.50	48.70	14300	28160000	14285	0.99893
53.00	52.50	48.60	9510	28180000	9493	0.99823
53.00	52.50	48.50	6220	28140000	6218	0.99964
53.00	52.50	48.40	3980	28220000	3967	0.99681
53.00	52.50	48.30	2450	28210000	2443	0.99716
53.00	52.50	48.20	1490	28220000	1485	0.99681
53.00	52.50	48.10	890	28280000	885	0.99470
53.00	52.50	48.00	520	28220000	518	0.99681
53.00	52.50	47.90	290	28210000	289	0.99716
53.00	52.50	47.80	180	28200000	180	0.99752
53.00	52.50	47.70	110	28170000	110	0.99858
53.00	52.50	47.60	70	28120000	70	1.00036
53.00	52.50	47.50	70	28190000	70	0.99787
53.00	52.50	47.40	40	28150000	40	0.99929
53.00	52.50	47.30	40	28180000	40	0.99823
53.00	52.50	47.20	40	28250000	40	0.99575
53.00	52.50	47.10	40	28230000	40	0.99646
53.00	52.50	47.00	50	28210000	50	0.99716
