This file was created by CODIAN@move
Dienstag, 31. August 2021		17:42

Profile mode:	1-D-Scan    Z
Timebase Counter [ms]:	1000
No. of Steps:	151
Pos. X	Pos.Y	Pos. Z	Probe	Reference	norm. Probe	norm. Factor
53.00	53.00	60.00	267000	25620000	267000	1.00000
53.00	53.00	59.90	268800	25670000	268276	0.99805
53.00	53.00	59.80	270600	25700000	269758	0.99689
53.00	53.00	59.70	273500	25880000	270752	0.98995
53.00	53.00	59.60	273500	25770000	271908	0.99418
53.00	53.00	59.50	275800	25830000	273558	0.99187
53.00	53.00	59.40	276500	25790000	274677	0.99341
53.00	53.00	59.30	277300	25750000	275900	0.99495
53.00	53.00	59.20	277400	25630000	277292	0.99961
53.00	53.00	59.10	280200	25760000	278677	0.99457
53.00	53.00	59.00	279700	25580000	280137	1.00156
53.00	53.00	58.90	282000	25670000	281451	0.99805
53.00	53.00	58.80	283900	25690000	283126	0.99728
53.00	53.00	58.70	284900	25650000	284567	0.99883
53.00	53.00	58.60	287400	25730000	286171	0.99572
53.00	53.00	58.50	287400	25600000	287625	1.00078
53.00	53.00	58.40	290700	25730000	289457	0.99572
53.00	53.00	58.30	290700	25610000	290814	1.00039
53.00	53.00	58.20	292200	25590000	292543	1.00117
53.00	53.00	58.10	295500	25750000	294008	0.99495
53.00	53.00	58.00	297500	25750000	295998	0.99495
53.00	53.00	57.90	299100	25720000	297937	0.99611
53.00	53.00	57.80	299200	25580000	299668	1.00156
53.00	53.00	57.70	302300	25700000	301359	0.99689
53.00	53.00	57.60	303800	25670000	303208	0.99805
53.00	53.00	57.50	306300	25700000	305347	0.99689
53.00	53.00	57.40	307600	25680000	306881	0.99766
53.00	53.00	57.30	310800	25760000	309111	0.99457
53.00	53.00	57.20	312200	25690000	311349	0.99728
53.00	53.00	57.10	315200	25770000	313365	0.99418
53.00	53.00	57.00	317100	25750000	315499	0.99495
53.00	53.00	56.90	319000	25710000	317883	0.99650
53.00	53.00	56.80	320600	25670000	319976	0.99805
53.00	53.00	56.70	323000	25670000	322371	0.99805
53.00	53.00	56.60	325600	25680000	324839	0.99766
53.00	53.00	56.50	328600	25730000	327195	0.99572
53.00	53.00	56.40	330800	25710000	329642	0.99650
53.00	53.00	56.30	332000	25570000	332649	1.00196
53.00	53.00	56.20	336000	25660000	335476	0.99844
53.00	53.00	56.10	339700	25730000	338248	0.99572
53.00	53.00	56.00	342300	25730000	340837	0.99572
53.00	53.00	55.90	345100	25710000	343892	0.99650
53.00	53.00	55.80	347900	25690000	346952	0.99728
53.00	53.00	55.70	350800	25680000	349980	0.99766
53.00	53.00	55.60	354500	25700000	353396	0.99689
53.00	53.00	55.50	358700	25750000	356889	0.99495
53.00	53.00	55.40	361400	25710000	360135	0.99650
53.00	53.00	55.30	364200	25660000	363632	0.99844
53.00	53.00	55.20	366300	25550000	367304	1.00274
53.00	53.00	55.10	372500	25710000	371196	0.99650
53.00	53.00	55.00	375600	25650000	375161	0.99883
53.00	53.00	54.90	381400	25760000	379327	0.99457
53.00	53.00	54.80	386700	25820000	383705	0.99225
53.00	53.00	54.70	389600	25720000	388085	0.99611
53.00	53.00	54.60	394900	25760000	392754	0.99457
53.00	53.00	54.50	403100	25970000	397667	0.98652
53.00	53.00	54.40	406800	25880000	402713	0.98995
53.00	53.00	54.30	411100	25820000	407916	0.99225
53.00	53.00	54.20	415200	25720000	413586	0.99611
53.00	53.00	54.10	420700	25710000	419227	0.99650
53.00	53.00	54.00	426700	25700000	425372	0.99689
53.00	53.00	53.90	433300	25690000	432119	0.99728
53.00	53.00	53.80	439900	25670000	439043	0.99805
53.00	53.00	53.70	447500	25690000	446281	0.99728
53.00	53.00	53.60	454800	25680000	453737	0.99766
53.00	53.00	53.50	464100	25740000	461936	0.99534
53.00	53.00	53.40	472300	25700000	470830	0.99689
53.00	53.00	53.30	481400	25680000	480275	0.99766
53.00	53.00	53.20	493100	25740000	490801	0.99534
53.00	53.00	53.10	503300	25710000	501538	0.99650
53.00	53.00	53.00	514500	25660000	513698	0.99844
53.00	53.00	52.90	527300	25630000	527094	0.99961
53.00	53.00	52.80	543400	25720000	541287	0.99611
53.00	53.00	52.70	557900	25670000	556813	0.99805
53.00	53.00	52.60	573000	25640000	572553	0.99922
53.00	53.00	52.50	591600	25700000	589758	0.99689
53.00	53.00	52.40	610300	25710000	608164	0.99650
53.00	53.00	52.30	627200	25650000	626466	0.99883
53.00	53.00	52.20	646500	25680000	644989	0.99766
53.00	53.00	52.10	665000	25700000	662930	0.99689
53.00	53.00	52.00	681000	25690000	679144	0.99728
53.00	53.00	51.90	696200	25720000	693493	0.99611
53.00	53.00	51.80	704900	25640000	704350	0.99922
53.00	53.00	51.70	714500	25750000	710893	0.99495
53.00	53.00	51.60	716000	25710000	713494	0.99650
53.00	53.00	51.50	712800	25690000	710858	0.99728
53.00	53.00	51.40	703100	25680000	701457	0.99766
53.00	53.00	51.30	686500	25660000	685430	0.99844
53.00	53.00	51.20	664100	25680000	662548	0.99766
53.00	53.00	51.10	635900	25730000	633181	0.99572
53.00	53.00	51.00	599900	25690000	598265	0.99728
53.00	53.00	50.90	560800	25740000	558186	0.99534
53.00	53.00	50.80	515700	25700000	514095	0.99689
53.00	53.00	50.70	467600	25660000	466871	0.99844
53.00	53.00	50.60	421000	25690000	419853	0.99728
53.00	53.00	50.50	371400	25670000	370677	0.99805
53.00	53.00	50.40	322400	25650000	322023	0.99883
53.00	53.00	50.30	275800	25650000	275477	0.99883
53.00	53.00	50.20	231700	25690000	231069	0.99728
53.00	53.00	50.10	191500	25690000	190978	0.99728
53.00	53.00	50.00	155700	25650000	155518	0.99883
53.00	53.00	49.90	124100	25670000	123858	0.99805
53.00	53.00	49.80	96570	25660000	96419	0.99844
53.00	53.00	49.70	74390	25730000	74072	0.99572
53.00	53.00	49.60	55820	25690000	55668	0.99728
53.00	53.00	49.50	40470	25680000	40375	0.99766
53.00	53.00	49.40	29290	25740000	29153	0.99534
53.00	53.00	49.30	20520	25780000	20393	0.99379
53.00	53.00	49.20	13890	25710000	13841	0.99650
53.00	53.00	49.10	9230	25690000	9205	0.99728
53.00	53.00	49.00	6030	25700000	6011	0.99689
53.00	53.00	48.90	3790	25700000	3778	0.99689
53.00	53.00	48.80	2340	25700000	2333	0.99689
53.00	53.00	48.70	1410	25690000	1406	0.99728
53.00	53.00	48.60	820	25690000	818	0.99728
53.00	53.00	48.50	460	25680000	459	0.99766
53.00	53.00	48.40	260	25670000	259	0.99805
53.00	53.00	48.30	130	25640000	130	0.99922
53.00	53.00	48.20	80	25690000	80	0.99728
53.00	53.00	48.10	50	25690000	50	0.99728
53.00	53.00	48.00	20	25740000	20	0.99534
53.00	53.00	47.90	20	25750000	20	0.99495
53.00	53.00	47.80	10	25720000	10	0.99611
53.00	53.00	47.70	10	25730000	10	0.99572
53.00	53.00	47.60	0	25690000	0	0.99728
53.00	53.00	47.50	10	25710000	10	0.99650
53.00	53.00	47.40	10	25560000	10	1.00235
53.00	53.00	47.30	10	25620000	10	1.00000
53.00	53.00	47.20	0	25670000	0	0.99805
53.00	53.00	47.10	0	25690000	0	0.99728
53.00	53.00	47.00	0	25610000	0	1.00039
53.00	53.00	46.90	10	25620000	10	1.00000
53.00	53.00	46.80	0	25690000	0	0.99728
53.00	53.00	46.70	10	25670000	10	0.99805
53.00	53.00	46.60	0	25720000	0	0.99611
53.00	53.00	46.50	0	25810000	0	0.99264
53.00	53.00	46.40	0	25700000	0	0.99689
53.00	53.00	46.30	0	25780000	0	0.99379
53.00	53.00	46.20	0	25660000	0	0.99844
53.00	53.00	46.10	0	25760000	0	0.99457
53.00	53.00	46.00	0	25790000	0	0.99341
53.00	53.00	45.90	10	25710000	10	0.99650
53.00	53.00	45.80	0	25820000	0	0.99225
53.00	53.00	45.70	0	25780000	0	0.99379
53.00	53.00	45.60	0	25730000	0	0.99572
53.00	53.00	45.50	0	25720000	0	0.99611
53.00	53.00	45.40	0	25720000	0	0.99611
53.00	53.00	45.30	10	25680000	10	0.99766
53.00	53.00	45.20	0	25700000	0	0.99689
53.00	53.00	45.10	0	25690000	0	0.99728
53.00	53.00	45.00	0	25690000	0	0.99728
